# Best-fit normalized data and profile from VoigtFit
# column 1 : Wavelength
# column 2 : Normalized flux
# column 3 : Normalized error
# column 4 : Best-fit profile
# column 5 : Pixel mask, 1=included, 0=excluded
1299.140   0.1702   0.0180   0.9988   1
1299.159   0.1469   0.0124   0.9988   0
1299.177   0.1523   0.0180   0.9988   0
1299.196   0.1747   0.0186   0.9987   0
1299.215   0.1824   0.0133   0.9987   0
1299.233   0.1774   0.0186   0.9987   0
1299.252   0.1906   0.0190   0.9987   0
1299.271   0.2211   0.0144   0.9987   0
1299.289   0.2457   0.0210   0.9987   0
1299.308   0.2471   0.0211   0.9987   0
1299.326   0.2379   0.0147   0.9987   0
1299.345   0.2929   0.0222   0.9987   0
1299.364   0.2915   0.0225   0.9986   0
1299.382   0.3796   0.0175   0.9986   0
1299.401   0.3569   0.0239   0.9986   0
1299.420   0.3705   0.0242   0.9986   0
1299.438   0.3884   0.0177   0.9986   0
1299.457   0.4601   0.0267   0.9986   0
1299.476   0.4414   0.0264   0.9986   0
1299.494   0.4638   0.0191   0.9985   0
1299.513   0.4976   0.0279   0.9985   0
1299.532   0.5657   0.0205   0.9985   0
1299.550   0.5377   0.0285   0.9985   0
1299.569   0.5216   0.0285   0.9985   0
1299.587   0.6173   0.0217   0.9985   0
1299.606   0.6391   0.0311   0.9985   0
1299.625   0.6947   0.0324   0.9984   0
1299.643   0.7357   0.0234   0.9984   0
1299.662   0.7376   0.0335   0.9984   0
1299.680   0.8046   0.0345   0.9984   0
1299.699   0.7934   0.0243   0.9984   0
1299.718   0.8097   0.0351   0.9984   0
1299.736   0.8228   0.0351   0.9983   0
1299.755   0.8481   0.0251   0.9983   0
1299.774   0.9603   0.0379   0.9983   0
1299.792   0.9559   0.0382   0.9983   0
1299.811   0.9580   0.0269   0.9983   0
1299.830   0.9911   0.0385   0.9983   0
1299.848   0.9616   0.0383   0.9982   0
1299.867   1.0120   0.0276   0.9982   1
1299.886   1.0074   0.0396   0.9982   1
1299.904   1.0796   0.0404   0.9982   1
1299.923   1.0507   0.0284   0.9982   1
1299.941   1.0637   0.0404   0.9981   1
1299.960   1.0267   0.0283   0.9981   1
1299.979   1.1225   0.0417   0.9981   1
1299.997   1.0765   0.0407   0.9981   1
1300.016   1.0608   0.0287   0.9980   1
1300.035   1.0608   0.0407   0.9980   1
1300.053   1.0304   0.0404   0.9980   1
1300.072   1.0631   0.0290   0.9980   1
1300.091   1.0145   0.0403   0.9980   1
1300.109   1.0119   0.0407   0.9979   1
1300.128   0.9733   0.0282   0.9979   1
1300.147   1.0253   0.0408   0.9979   1
1300.165   1.0034   0.0400   0.9979   1
1300.184   0.9973   0.0285   0.9978   1
1300.202   1.0188   0.0409   0.9978   1
1300.221   0.9382   0.0396   0.9978   1
1300.240   0.9634   0.0285   0.9977   1
1300.258   0.9657   0.0403   0.9977   1
1300.277   0.9826   0.0411   0.9977   1
1300.295   0.9410   0.0283   0.9977   1
1300.314   0.8808   0.0388   0.9976   0
1300.333   0.9041   0.0282   0.9976   0
1300.351   0.8891   0.0399   0.9976   0
1300.370   0.8910   0.0397   0.9975   0
1300.389   0.8896   0.0281   0.9975   0
1300.407   0.9642   0.0413   0.9975   0
1300.426   0.8717   0.0394   0.9974   0
1300.445   0.9035   0.0286   0.9974   0
1300.463   0.8134   0.0388   0.9974   0
1300.482   0.8760   0.0398   0.9973   0
1300.501   0.8566   0.0280   0.9973   0
1300.519   0.8154   0.0391   0.9973   0
1300.538   0.8123   0.0388   0.9972   0
1300.556   0.7822   0.0273   0.9972   0
1300.575   0.7632   0.0383   0.9972   0
1300.594   0.7636   0.0381   0.9971   0
1300.612   0.7653   0.0272   0.9971   0
1300.631   0.7457   0.0379   0.9970   0
1300.650   0.6696   0.0258   0.9970   0
1300.668   0.6979   0.0373   0.9970   0
1300.687   0.6711   0.0371   0.9969   0
1300.706   0.6301   0.0255   0.9969   0
1300.724   0.5566   0.0347   0.9968   0
1300.743   0.5026   0.0332   0.9968   0
1300.762   0.4900   0.0231   0.9967   0
1300.780   0.4729   0.0322   0.9967   0
1300.799   0.3650   0.0298   0.9966   0
1300.817   0.3891   0.0213   0.9966   0
1300.836   0.3372   0.0284   0.9965   0
1300.855   0.2949   0.0274   0.9965   0
1300.873   0.2598   0.0189   0.9964   0
1300.892   0.2439   0.0260   0.9964   0
1300.910   0.2370   0.0256   0.9963   0
1300.929   0.2853   0.0198   0.9962   0
1300.948   0.2245   0.0257   0.9962   0
1300.966   0.2157   0.0257   0.9961   0
1300.985   0.2266   0.0181   0.9961   0
1301.004   0.1891   0.0243   0.9960   0
1301.022   0.2178   0.0179   0.9959   0
1301.041   0.1735   0.0243   0.9959   0
1301.060   0.1612   0.0244   0.9958   0
1301.078   0.1396   0.0164   0.9957   0
1301.097   0.0689   0.0207   0.9956   0
1301.116   0.0686   0.0207   0.9956   0
1301.134   0.1092   0.0158   0.9955   0
1301.153   0.1266   0.0219   0.9954   0
1301.171   0.0856   0.0219   0.9953   0
1301.190   0.2043   0.0179   0.9952   0
1301.209   0.1457   0.0240   0.9951   0
1301.227   0.1363   0.0245   0.9951   0
1301.246   0.1313   0.0169   0.9950   0
1301.265   0.1526   0.0250   0.9949   0
1301.283   0.1751   0.0249   0.9948   0
1301.302   0.1799   0.0185   0.9947   0
1301.321   0.1901   0.0269   0.9946   0
1301.339   0.2375   0.0198   0.9945   0
1301.358   0.2372   0.0282   0.9943   0
1301.377   0.2761   0.0287   0.9942   0
1301.395   0.2282   0.0196   0.9941   0
1301.414   0.3009   0.0312   0.9940   0
1301.432   0.3310   0.0316   0.9939   0
1301.451   0.3067   0.0221   0.9937   0
1301.470   0.3144   0.0314   0.9936   0
1301.488   0.3441   0.0326   0.9935   0
1301.507   0.3750   0.0239   0.9933   0
1301.526   0.3300   0.0323   0.9932   0
1301.544   0.3584   0.0337   0.9930   0
1301.563   0.4468   0.0257   0.9929   0
1301.582   0.4742   0.0378   0.9927   0
1301.600   0.5661   0.0400   0.9925   0
1301.619   0.5927   0.0292   0.9923   0
1301.638   0.4972   0.0388   0.9921   0
1301.656   0.6530   0.0300   0.9919   0
1301.675   0.6082   0.0423   0.9917   0
1301.693   0.6020   0.0418   0.9915   0
1301.712   0.6543   0.0307   0.9913   0
1301.731   0.7978   0.0471   0.9910   0
1301.749   0.7423   0.0377   0.9908   0
1301.768   0.7472   0.0294   0.9905   0
1301.786   0.8710   0.0354   0.9902   0
1301.805   0.9158   0.0416   0.9899   0
1301.824   0.9957   0.0330   0.9896   1
1301.842   1.0072   0.0380   0.9892   1
1301.861   1.0343   0.0445   0.9888   1
1301.880   1.0654   0.0346   0.9884   1
1301.898   0.9984   0.0377   0.9879   1
1301.917   1.0119   0.0438   0.9872   1
1301.936   0.9279   0.0329   0.9835   1
1301.954   0.9403   0.0370   0.9544   1
1301.973   0.8901   0.0321   0.8008   1
1301.992   0.4884   0.0329   0.4656   1
1302.010   0.1875   0.0209   0.1542   1
1302.029   0.0868   0.0153   0.0448   1
1302.047   0.0174   0.0165   0.0540   1
1302.066   0.0270   0.0168   0.0872   1
1302.085   -0.0113   0.0120   0.0515   1
1302.103   0.0076   0.0159   0.0079   1
1302.122   -0.0067   0.0157   0.0003   1
1302.141   0.0325   0.0114   0.0000   1
1302.159   -0.0075   0.0158   0.0000   1
1302.178   0.0221   0.0156   -0.0000   1
1302.197   -0.0011   0.0111   0.0000   1
1302.215   0.0019   0.0163   -0.0000   1
1302.234   0.0145   0.0125   -0.0000   1
1302.252   -0.0038   0.0144   -0.0000   1
1302.271   0.0190   0.0171   0.0000   1
1302.290   -0.0273   0.0124   0.0000   1
1302.308   0.0337   0.0146   0.0002   1
1302.327   0.0790   0.0204   0.0062   1
1302.346   0.1893   0.0185   0.0602   1
1302.364   0.2317   0.0216   0.1921   1
1302.383   0.2415   0.0259   0.2187   1
1302.401   0.0993   0.0163   0.1089   1
1302.420   0.0423   0.0165   0.0323   1
1302.439   0.0522   0.0179   0.0131   1
1302.457   0.0311   0.0137   0.0291   1
1302.476   0.1214   0.0182   0.1148   1
1302.495   0.2561   0.0260   0.3372   1
1302.513   0.6413   0.0288   0.6364   1
1302.532   0.8960   0.0421   0.8522   1
1302.551   1.0118   0.0314   0.9355   1
1302.569   0.9707   0.0441   0.9495   1
1302.588   0.9265   0.0428   0.9317   1
1302.607   0.7614   0.0278   0.8715   1
1302.625   0.7608   0.0393   0.7460   1
1302.644   0.6020   0.0351   0.5444   1
1302.662   0.4174   0.0220   0.3201   1
1302.681   0.1349   0.0218   0.1512   1
1302.700   0.0763   0.0196   0.0640   1
1302.718   0.0113   0.0114   0.0317   1
1302.737   0.0268   0.0178   0.0269   1
1302.756   0.0390   0.0171   0.0442   1
1302.774   0.0946   0.0142   0.0950   1
1302.793   0.1794   0.0238   0.1927   1
1302.812   0.2826   0.0207   0.3116   1
1302.830   0.2777   0.0229   0.3839   1
1302.849   0.3777   0.0289   0.3643   1
1302.867   0.3128   0.0216   0.2829   1
1302.886   0.1812   0.0195   0.1851   1
1302.905   0.1033   0.0203   0.1047   1
1302.923   0.0819   0.0149   0.0511   1
1302.942   0.0358   0.0139   0.0218   1
1302.961   0.0136   0.0159   0.0083   1
1302.979   0.0281   0.0130   0.0027   1
1302.998   0.0167   0.0139   0.0009   1
1303.016   0.0351   0.0160   0.0002   1
1303.035   -0.0228   0.0118   0.0000   1
1303.054   0.0053   0.0150   0.0000   1
1303.072   0.0050   0.0122   0.0000   1
1303.091   -0.0107   0.0114   0.0000   1
1303.110   -0.0016   0.0144   0.0000   1
1303.128   0.0147   0.0112   -0.0000   1
1303.147   -0.0053   0.0141   -0.0000   1
1303.166   0.0442   0.0160   -0.0000   1
1303.184   0.0255   0.0108   -0.0000   1
1303.203   0.0178   0.0148   -0.0000   1
1303.222   -0.0319   0.0138   -0.0000   1
1303.240   -0.0063   0.0103   0.0000   1
1303.259   -0.0020   0.0151   -0.0000   1
1303.277   0.0277   0.0154   -0.0000   1
1303.296   -0.0056   0.0101   0.0000   1
1303.315   0.0141   0.0151   0.0000   1
1303.333   0.0172   0.0149   -0.0000   1
1303.352   -0.0099   0.0099   -0.0000   1
1303.371   0.0261   0.0146   -0.0000   1
1303.389   -0.0217   0.0107   -0.0000   1
1303.408   0.0010   0.0116   -0.0000   1
1303.427   0.0281   0.0148   -0.0000   1
1303.445   -0.0050   0.0110   -0.0000   1
1303.464   -0.0036   0.0110   0.0000   1
1303.482   -0.0015   0.0134   0.0000   1
1303.501   -0.0120   0.0106   -0.0000   1
1303.520   -0.0056   0.0118   -0.0000   1
1303.538   -0.0151   0.0131   0.0000   1
1303.557   0.0199   0.0116   0.0000   1
1303.576   -0.0238   0.0112   0.0000   1
1303.594   0.0514   0.0159   0.0006   1
1303.613   0.0611   0.0138   0.0066   1
1303.632   0.1646   0.0202   0.0282   1
1303.650   0.1140   0.0135   0.0619   1
1303.669   0.0926   0.0190   0.0985   1
1303.688   0.1975   0.0217   0.1357   1
1303.706   0.2098   0.0157   0.1755   1
1303.725   0.1596   0.0203   0.2205   1
1303.743   0.2360   0.0234   0.2711   1
1303.762   0.3725   0.0191   0.3262   1
1303.781   0.4609   0.0288   0.3850   1
1303.799   0.4433   0.0288   0.4461   1
1303.818   0.5118   0.0217   0.5072   1
1303.836   0.4623   0.0296   0.5669   1
1303.855   0.5507   0.0314   0.6241   1
1303.874   0.6119   0.0230   0.6767   1
1303.892   0.6273   0.0325   0.7248   1
1303.911   0.7169   0.0283   0.7673   1
1303.930   0.6978   0.0281   0.8041   1
1303.948   0.7124   0.0344   0.8360   1
1303.967   0.7522   0.0284   0.8625   1
1303.986   0.8367   0.0301   0.8845   1
1304.004   0.8547   0.0373   0.9028   1
1304.023   0.8983   0.0311   0.9174   1
1304.042   0.9514   0.0316   0.9293   1
1304.060   0.9581   0.0386   0.9388   1
1304.079   1.0532   0.0335   0.9464   1
1304.098   1.0260   0.0325   0.9525   1
1304.116   1.0620   0.0408   0.9573   1
1304.135   1.0746   0.0336   0.9612   1
1304.153   1.1166   0.0337   0.9644   1
1304.172   1.1327   0.0345   0.9670   1
1304.191   1.0135   0.0396   0.9691   1
1304.209   0.6779   0.0273   0.9710   0
1304.228   0.4264   0.0227   0.9725   0
1304.247   0.3762   0.0263   0.9739   0
1304.265   0.5570   0.0246   0.9751   0
1304.284   0.6730   0.0272   0.9762   0
1304.303   0.5156   0.0298   0.9772   0
1304.321   0.3285   0.0257   0.9781   0
1304.340   0.2046   0.0214   0.9789   0
1304.358   0.0892   0.0242   0.9797   0
1304.377   0.0447   0.0217   0.9804   0
1304.396   0.0307   0.0149   0.9811   0
1304.414   0.0293   0.0185   0.9818   0
1304.433   -0.0117   0.0178   0.9824   0
1304.451   -0.0122   0.0128   0.9830   0
1304.470   -0.0224   0.0173   0.9835   0
1304.489   0.0490   0.0199   0.9841   0
1304.507   0.1314   0.0178   0.9846   0
1304.526   0.2381   0.0300   0.9850   0
1304.545   0.3776   0.0350   0.9855   0
1304.563   0.3829   0.0250   0.9859   0
1304.582   0.2174   0.0290   0.9863   0
1304.601   0.1718   0.0264   0.9867   0
1304.619   0.0329   0.0141   0.9871   0
1304.638   0.0296   0.0177   0.9875   0
1304.657   0.0028   0.0189   0.9878   0
1304.675   0.0935   0.0166   0.9882   0
1304.694   0.2220   0.0294   0.9885   0
1304.713   0.4879   0.0374   0.9888   0
1304.731   0.7643   0.0322   0.9891   0
1304.750   0.8320   0.0474   0.9894   0
1304.768   0.7681   0.0462   0.9897   0
1304.787   0.7634   0.0321   0.9899   0
1304.806   0.5637   0.0404   0.9902   0
1304.824   0.6943   0.0439   0.9904   0
1304.843   0.6335   0.0297   0.9907   0
1304.862   0.4320   0.0372   0.9909   0
1304.880   0.3352   0.0328   0.9911   0
1304.899   0.1948   0.0194   0.9913   0
1304.918   0.0750   0.0228   0.9915   0
1304.936   0.0866   0.0223   0.9917   0
1304.955   0.1661   0.0181   0.9919   0
1304.973   0.2896   0.0315   0.9921   0
1304.992   0.5285   0.0389   0.9923   0
1305.011   0.5384   0.0279   0.9924   0
1305.029   0.5461   0.0389   0.9926   0
1305.048   0.6187   0.0413   0.9928   0
1305.067   0.5744   0.0398   0.9929   0
1305.085   0.5688   0.0285   0.9931   0
1305.104   0.5044   0.0385   0.9932   0
1305.123   0.3914   0.0346   0.9933   0
1305.141   0.3249   0.0228   0.9935   0
1305.160   0.3036   0.0308   0.9936   0
1305.178   0.3605   0.0344   0.9937   0
1305.197   0.3958   0.0247   0.9939   0
1305.216   0.2792   0.0312   0.9940   0
1305.234   0.1979   0.0279   0.9941   0
1305.253   0.1674   0.0181   0.9942   0
1305.272   0.1031   0.0232   0.9943   0
1305.290   0.0856   0.0222   0.9944   0
1305.309   0.0742   0.0155   0.9945   0
1305.328   0.1628   0.0253   0.9946   0
1305.346   0.1227   0.0248   0.9947   0
1305.365   0.2160   0.0198   0.9948   0
1305.383   0.3039   0.0309   0.9949   0
1305.402   0.2886   0.0306   0.9950   0
1305.421   0.2618   0.0213   0.9951   0
1305.439   0.2945   0.0319   0.9952   0
1305.458   0.3995   0.0342   0.9953   0
1305.477   0.2587   0.0213   0.9954   0
1305.495   0.1515   0.0243   0.9954   0
1305.514   0.0535   0.0202   0.9955   0
1305.533   0.0271   0.0134   0.9956   0
1305.551   -0.0284   0.0166   0.9957   0
1305.570   0.0144   0.0185   0.9957   0
1305.588   0.0405   0.0134   0.9958   0
1305.607   -0.0082   0.0175   0.9959   0
1305.626   -0.0015   0.0171   0.9959   0
1305.644   -0.0320   0.0123   0.9960   0
1305.663   0.0185   0.0203   0.9961   0
1305.682   0.0495   0.0210   0.9961   0
1305.700   0.1202   0.0174   0.9962   0
1305.719   0.1538   0.0252   0.9962   0
1305.737   0.0893   0.0237   0.9963   0
1305.756   0.2153   0.0205   0.9964   0
1305.775   0.5537   0.0398   0.9964   0
1305.793   0.5689   0.0410   0.9965   0
1305.812   0.7557   0.0323   0.9965   0
1305.831   0.7130   0.0449   0.9966   0
1305.849   0.8263   0.0478   0.9966   0
1305.868   0.8124   0.0334   0.9967   0
1305.887   0.8907   0.0489   0.9967   0
1305.905   0.9396   0.0498   0.9968   1
1305.924   0.8509   0.0341   0.9968   1
1305.943   0.9552   0.0509   0.9969   1
1305.961   0.9655   0.0507   0.9969   1
1305.980   1.0107   0.0518   0.9969   1
1305.998   0.9787   0.0366   0.9970   1
1306.017   1.0634   0.0534   0.9970   1
1306.036   1.0361   0.0522   0.9971   1
1306.054   0.8979   0.0349   0.9971   1
1306.073   0.9226   0.0510   0.9972   1
1306.092   1.0299   0.0527   0.9972   1
1306.110   1.0487   0.0376   0.9972   1
1306.129   1.0765   0.0539   0.9973   1
1306.148   1.0355   0.0528   0.9973   1
1306.166   0.9989   0.0372   0.9973   1
1306.185   1.0918   0.0542   0.9974   1
1306.204   0.9856   0.0517   0.9974   1
1306.222   0.9412   0.0363   0.9974   1
1306.241   1.0590   0.0535   0.9975   1
1306.259   1.0510   0.0539   0.9975   1
1306.278   1.0419   0.0378   0.9975   1
