# Best-fit normalized data and profile from VoigtFit
# column 1 : Wavelength
# column 2 : Normalized flux
# column 3 : Normalized error
# column 4 : Best-fit profile
1402.083   1.0572   0.0538   1.0000   1
1402.101   0.9308   0.0608   1.0000   1
1402.120   1.0194   0.0631   1.0000   1
1402.138   1.0355   0.0525   1.0000   1
1402.157   1.0374   0.0527   1.0000   1
1402.176   1.0118   0.0624   1.0000   1
1402.194   1.0379   0.0626   1.0000   1
1402.213   1.0047   0.0511   1.0000   1
1402.232   0.9987   0.0620   1.0000   1
1402.250   0.9615   0.0505   1.0000   1
1402.269   1.0414   0.0624   1.0000   1
1402.288   1.0094   0.0507   1.0000   1
1402.306   0.9264   0.0591   1.0000   1
1402.325   0.9730   0.0504   1.0000   1
1402.343   0.9426   0.0588   1.0000   1
1402.362   0.9812   0.0498   1.0000   1
1402.381   1.0279   0.0613   1.0000   1
1402.399   1.0909   0.0618   1.0000   1
1402.418   1.0133   0.0440   1.0000   1
1402.437   1.0139   0.0603   1.0000   1
1402.455   1.0299   0.0603   1.0000   1
1402.474   0.9639   0.0584   1.0000   1
1402.492   1.0060   0.0434   1.0000   1
1402.511   0.9222   0.0572   1.0000   1
1402.530   1.0461   0.0605   1.0000   1
1402.548   1.0983   0.0611   1.0000   1
1402.567   1.0548   0.0499   1.0000   1
1402.585   0.9831   0.0477   1.0000   1
1402.604   1.0051   0.0594   0.9999   1
1402.623   0.9538   0.0572   0.9997   1
1402.641   1.0751   0.0500   0.9990   1
1402.660   1.0289   0.0482   0.9971   1
1402.679   1.0391   0.0586   0.9925   1
1402.697   1.0679   0.0589   0.9820   1
1402.716   0.9138   0.0466   0.9614   1
1402.735   0.9233   0.0455   0.9267   1
1402.753   0.8449   0.0535   0.8759   1
1402.772   0.8189   0.0529   0.8102   1
1402.790   0.7278   0.0427   0.7405   1
1402.809   0.6644   0.0490   0.6793   1
1402.828   0.6047   0.0385   0.6375   1
1402.846   0.5981   0.0399   0.6259   1
1402.865   0.6952   0.0490   0.6442   1
1402.883   0.7964   0.0664   0.6889   1
1402.902   0.8067   0.0488   0.7513   1
1402.921   0.7825   0.0665   0.8166   1
1402.939   0.7987   0.0686   0.8709   1
1402.958   0.9015   0.0689   0.9044   1
1402.977   0.9030   0.0716   0.9133   1
1402.995   0.9482   0.0520   0.9010   1
1403.014   0.8583   0.0692   0.8772   1
1403.032   0.8826   0.0683   0.8516   1
1403.051   0.8657   0.0678   0.8328   1
1403.070   0.7730   0.0475   0.8281   1
1403.088   0.8768   0.0680   0.8383   1
1403.107   0.8623   0.0678   0.8614   1
1403.126   0.9812   0.0715   0.8925   1
1403.144   0.8958   0.0496   0.9240   1
1403.163   1.0506   0.0727   0.9507   1
1403.181   0.9413   0.0693   0.9688   1
1403.200   1.0707   0.0725   0.9764   1
1403.219   0.9516   0.0686   0.9739   1
1403.237   0.9400   0.0500   0.9632   1
1403.256   0.8882   0.0671   0.9479   1
1403.275   1.0667   0.0711   0.9327   1
1403.293   0.8670   0.0647   0.9237   1
1403.312   0.9734   0.0498   0.9241   1
1403.330   1.0411   0.0700   0.9340   1
1403.349   0.9834   0.0688   0.9502   1
1403.368   0.8933   0.0668   0.9671   1
1403.386   0.9523   0.0492   0.9812   1
1403.405   0.8975   0.0653   0.9908   1
1403.423   0.8944   0.0655   0.9959   1
1403.442   1.0005   0.0682   0.9984   1
1403.461   1.1028   0.0715   0.9994   1
1403.479   0.9805   0.0491   0.9998   1
1403.498   1.0187   0.0681   0.9998   1
1403.517   1.1280   0.0709   0.9996   1
1403.535   1.0049   0.0675   0.9990   1
1403.554   0.9705   0.0485   0.9975   1
1403.573   0.9407   0.0650   0.9940   1
1403.591   0.9690   0.0659   0.9864   1
1403.610   1.0317   0.0680   0.9714   1
1403.628   0.7989   0.0612   0.9433   1
1403.647   0.7616   0.0438   0.8942   1
1403.666   0.7367   0.0582   0.8183   1
1403.684   0.6804   0.0565   0.7136   1
1403.703   0.7276   0.0585   0.5855   1
1403.721   0.5861   0.0390   0.4478   1
1403.740   0.3848   0.0464   0.3205   1
1403.759   0.1937   0.0376   0.2178   1
1403.777   0.1205   0.0328   0.1454   1
1403.796   0.0736   0.0220   0.1005   1
1403.815   -0.0043   0.0260   0.0758   1
1403.833   -0.0400   0.0246   0.0657   1
1403.852   0.0450   0.0270   0.0682   1
1403.871   0.0864   0.0287   0.0838   1
1403.889   0.0449   0.0222   0.1158   1
1403.908   0.1182   0.0332   0.1707   1
1403.926   0.1910   0.0367   0.2559   1
1403.945   0.3115   0.0421   0.3694   1
1403.964   0.5437   0.0374   0.5028   1
1403.982   0.6958   0.0567   0.6395   1
1404.001   0.7386   0.0574   0.7590   1
1404.019   0.7134   0.0559   0.8522   1
1404.038   0.8673   0.0443   0.9167   1
1404.057   0.9352   0.0627   0.9567   1
1404.075   0.8556   0.0609   0.9786   1
1404.094   1.0149   0.0645   0.9901   1
1404.113   0.8853   0.0611   0.9957   1
1404.131   1.0351   0.0466   0.9983   1
1404.150   0.9075   0.0625   0.9993   1
1404.168   0.9297   0.0616   0.9997   1
1404.187   0.9504   0.0621   0.9998   1
1404.206   1.0012   0.0461   0.9999   1
1404.224   0.9599   0.0623   0.9999   1
1404.243   0.9523   0.0625   0.9999   1
1404.262   0.8958   0.0605   1.0000   1
1404.280   1.0694   0.0472   1.0000   1
1404.299   0.9601   0.0612   1.0000   1
1404.318   1.0525   0.0642   1.0000   1
1404.336   1.1402   0.0664   1.0000   1
1404.355   0.9365   0.0615   1.0000   1
1404.373   0.9955   0.0451   1.0000   1
1404.392   1.0073   0.0626   1.0000   1
1404.411   0.9890   0.0619   1.0000   1
1404.429   1.0710   0.0644   1.0000   1
1404.448   1.0112   0.0454   1.0000   1
1404.466   1.0208   0.0629   1.0000   1
1404.485   1.0460   0.0634   1.0000   1
1404.504   1.1019   0.0646   1.0000   1
1404.522   1.0748   0.0645   1.0000   1
1404.541   0.9959   0.0454   1.0000   1
1404.560   1.0584   0.0641   1.0000   1
1404.578   0.9502   0.0611   1.0000   1
1404.597   1.0565   0.0637   1.0000   1
1404.615   0.9976   0.0451   1.0000   1
1404.634   1.0044   0.0628   1.0000   1
