# Best-fit normalized data and profile from VoigtFit
# column 1 : Wavelength
# column 2 : Normalized flux
# column 3 : Normalized error
# column 4 : Best-fit profile
# column 5 : Pixel mask, 1=included, 0=excluded
1300.873   0.9792   0.0427   0.9880   1
1300.892   1.0012   0.0423   0.9877   1
1300.910   0.9899   0.0521   0.9873   1
1300.929   1.0700   0.0440   0.9870   1
1300.948   0.9358   0.0425   0.9866   1
1300.966   0.9876   0.0525   0.9862   1
1300.985   0.9639   0.0424   0.9858   1
1301.004   1.0089   0.0435   0.9853   1
1301.022   0.8812   0.0445   0.9849   1
1301.041   0.9792   0.0437   0.9844   1
1301.060   0.9468   0.0458   0.9839   1
1301.078   0.8733   0.0440   0.9834   1
1301.097   1.0124   0.0445   0.9829   1
1301.116   1.0094   0.0475   0.9823   1
1301.134   0.9828   0.0464   0.9817   1
1301.153   0.9770   0.0438   0.9810   1
1301.171   0.9344   0.0459   0.9804   1
1301.190   0.9918   0.0430   0.9797   1
1301.209   1.0846   0.0495   0.9789   1
1301.227   1.0010   0.0473   0.9781   1
1301.246   0.9670   0.0429   0.9773   1
1301.265   0.9352   0.0435   0.9764   1
1301.283   1.0630   0.0555   0.9755   1
1301.302   0.9259   0.0429   0.9745   1
1301.321   0.9438   0.0427   0.9734   1
1301.339   0.9452   0.0468   0.9723   1
1301.358   1.0370   0.0453   0.9712   1
1301.377   0.8286   0.0451   0.9699   1
1301.395   0.9353   0.0464   0.9685   1
1301.414   1.0530   0.0457   0.9671   1
1301.432   0.9332   0.0475   0.9656   1
1301.451   0.9711   0.0478   0.9639   1
1301.470   1.0432   0.0458   0.9621   1
1301.488   1.0302   0.0495   0.9602   1
1301.507   0.9788   0.0441   0.9582   1
1301.525   0.8424   0.0464   0.9560   1
1301.544   0.9999   0.0484   0.9536   1
1301.563   0.9418   0.0433   0.9510   1
1301.581   1.0799   0.0454   0.9482   1
1301.600   0.9892   0.0546   0.9451   1
1301.619   1.0054   0.0446   0.9418   1
1301.637   0.9644   0.0446   0.9382   1
1301.656   0.9963   0.0485   0.9342   1
1301.675   0.9356   0.0445   0.9298   1
1301.693   0.9195   0.0471   0.9250   1
1301.712   0.8729   0.0462   0.9196   1
1301.731   0.9373   0.0395   0.9136   1
1301.749   0.9437   0.0382   0.9070   1
1301.768   0.8903   0.0386   0.8996   1
1301.786   0.8889   0.0371   0.8913   1
1301.805   0.8707   0.0372   0.8820   1
1301.824   0.9261   0.0371   0.8714   1
1301.842   0.8866   0.0391   0.8592   1
1301.861   0.9146   0.0379   0.8441   1
1301.880   0.8413   0.0360   0.8212   1
1301.898   0.7719   0.0344   0.7820   1
1301.917   0.7396   0.0373   0.7324   1
1301.936   0.7154   0.0328   0.7007   1
1301.954   0.6702   0.0321   0.6894   1
1301.973   0.6219   0.0336   0.6410   1
1301.992   0.4284   0.0273   0.4541   1
1302.010   0.1879   0.0234   0.1720   1
1302.029   0.0345   0.0180   0.0233   1
1302.047   0.0141   0.0154   0.0007   1
1302.066   -0.0115   0.0174   0.0000   1
1302.085   -0.0008   0.0158   0.0000   1
1302.103   0.0277   0.0159   -0.0000   1
1302.122   0.0375   0.0165   -0.0000   1
1302.140   0.0131   0.0143   -0.0000   1
1302.159   -0.0023   0.0153   -0.0000   1
1302.178   0.0225   0.0173   -0.0000   1
1302.196   0.0199   0.0145   -0.0000   1
1302.215   -0.0353   0.0139   -0.0000   1
1302.234   0.0015   0.0148   -0.0000   1
1302.252   0.0284   0.0169   -0.0000   1
1302.271   -0.0058   0.0146   0.0000   1
1302.290   -0.0374   0.0147   0.0000   1
1302.308   0.0078   0.0148   0.0000   1
1302.327   0.0187   0.0160   0.0014   1
1302.346   0.0673   0.0180   0.0185   1
1302.364   0.0626   0.0170   0.0869   1
1302.383   0.1738   0.0217   0.1735   1
1302.401   0.2278   0.0238   0.1841   1
1302.420   0.1292   0.0199   0.1456   1
1302.439   0.1654   0.0226   0.1382   1
1302.457   0.2077   0.0217   0.1992   1
1302.476   0.2785   0.0237   0.3169   1
1302.495   0.3772   0.0306   0.4071   1
1302.513   0.4325   0.0267   0.4221   1
1302.532   0.4378   0.0291   0.4503   1
1302.551   0.6234   0.0326   0.5673   1
1302.569   0.6903   0.0328   0.7175   1
1302.588   0.7556   0.0380   0.8119   1
1302.606   0.8494   0.0366   0.8476   1
1302.625   0.7791   0.0355   0.8361   1
1302.644   0.6537   0.0343   0.7126   1
1302.662   0.4418   0.0288   0.4458   1
1302.681   0.1992   0.0224   0.2163   1
1302.700   0.1814   0.0226   0.1921   1
1302.718   0.4153   0.0272   0.3510   1
1302.737   0.4845   0.0301   0.4742   1
1302.756   0.4074   0.0284   0.3806   1
1302.774   0.2479   0.0235   0.2653   1
1302.793   0.3071   0.0239   0.2957   1
1302.812   0.4402   0.0297   0.4541   1
1302.830   0.5304   0.0320   0.6033   1
1302.849   0.6501   0.0314   0.6271   1
1302.867   0.5254   0.0318   0.5450   1
1302.886   0.4212   0.0278   0.4126   1
1302.905   0.2678   0.0239   0.2510   1
1302.923   0.0722   0.0199   0.1071   1
1302.942   0.0414   0.0168   0.0378   1
1302.961   0.0646   0.0182   0.0271   1
1302.979   0.0353   0.0158   0.0313   1
1302.998   0.0428   0.0168   0.0289   1
1303.016   0.0127   0.0158   0.0228   1
1303.035   0.0211   0.0151   0.0187   1
1303.054   0.0275   0.0155   0.0163   1
1303.072   0.0113   0.0156   0.0136   1
1303.091   -0.0024   0.0137   0.0099   1
1303.110   -0.0290   0.0143   0.0071   1
1303.128   0.0374   0.0153   0.0073   1
1303.147   0.0118   0.0153   0.0117   1
1303.166   0.0165   0.0157   0.0164   1
1303.184   0.0350   0.0153   0.0115   1
1303.203   -0.0158   0.0143   0.0029   1
1303.221   0.0292   0.0157   0.0003   1
1303.240   -0.0094   0.0148   0.0000   1
1303.259   -0.0173   0.0134   0.0000   1
1303.277   0.0111   0.0153   0.0000   1
1303.296   0.0276   0.0150   -0.0000   1
1303.315   -0.0286   0.0137   -0.0000   1
1303.333   -0.0223   0.0163   -0.0000   1
1303.352   0.0047   0.0150   -0.0000   1
1303.371   0.0140   0.0143   -0.0000   1
1303.389   0.0093   0.0151   -0.0000   1
1303.408   -0.0263   0.0132   -0.0000   1
1303.427   -0.0031   0.0150   -0.0000   1
1303.445   -0.0135   0.0145   -0.0000   1
1303.464   -0.0210   0.0143   0.0000   1
1303.482   0.0228   0.0154   0.0000   1
1303.501   0.0255   0.0159   0.0000   1
1303.520   0.0061   0.0147   0.0005   1
1303.538   0.0222   0.0164   0.0094   1
1303.557   0.0679   0.0171   0.0753   1
1303.576   0.2979   0.0236   0.2747   1
1303.594   0.5601   0.0342   0.5642   1
1303.613   0.7540   0.0323   0.7950   1
1303.631   0.8524   0.0375   0.9140   1
1303.650   0.9038   0.0367   0.9623   1
1303.669   0.9164   0.0358   0.9793   1
1303.687   1.0038   0.0422   0.9848   1
1303.706   0.9716   0.0375   0.9867   1
1303.725   1.0230   0.0372   0.9876   1
1303.743   1.0537   0.0431   0.9882   1
1303.762   1.0699   0.0398   0.9887   1
1303.781   1.0031   0.0394   0.9891   1
1303.799   0.9828   0.0398   0.9895   1
1303.818   0.9792   0.0366   0.9898   1
1303.836   1.0333   0.0392   0.9901   1
1303.855   1.0403   0.0429   0.9904   1
1303.874   1.0245   0.0381   0.9907   1
1303.892   1.0546   0.0379   0.9910   1
1303.911   1.0002   0.0397   0.9912   1
1303.930   1.0245   0.0386   0.9915   1
1303.948   0.9994   0.0386   0.9917   1
1303.967   1.0421   0.0407   0.9919   1
1303.986   0.9808   0.0381   0.9921   1
1304.004   0.9548   0.0377   0.9923   1
1304.023   1.0224   0.0400   0.9925   1
1304.042   1.0185   0.0391   0.9927   1
1304.060   1.1338   0.0401   0.9928   1
1304.079   0.9591   0.0378   0.9930   1
1304.097   1.0030   0.0383   0.9932   1
1304.116   0.9581   0.0398   0.9933   1
