# Best-fit normalized data and profile from VoigtFit
# column 1 : Wavelength
# column 2 : Normalized flux
# column 3 : Normalized error
# column 4 : Best-fit profile
# column 5 : Pixel mask, 1=included, 0=excluded
1402.073   0.9861   0.0373   1.0000   1
1402.092   1.0297   0.0375   1.0000   1
1402.110   0.9783   0.0328   1.0000   1
1402.129   0.9641   0.0307   1.0000   1
1402.148   0.9456   0.0334   1.0000   1
1402.166   0.9873   0.0368   1.0000   1
1402.185   1.0053   0.0302   1.0000   1
1402.204   0.9916   0.0364   1.0000   1
1402.222   0.9941   0.0312   1.0000   1
1402.241   0.9607   0.0361   1.0000   1
1402.259   1.0293   0.0303   1.0000   1
1402.278   1.0005   0.0365   1.0000   1
1402.297   1.0107   0.0332   1.0000   1
1402.315   1.0220   0.0336   1.0000   1
1402.334   1.0538   0.0306   1.0000   1
1402.353   1.0396   0.0370   1.0000   1
1402.371   1.0382   0.0335   1.0000   1
1402.390   1.0318   0.0308   1.0000   1
1402.408   1.0053   0.0332   1.0000   1
1402.427   0.9909   0.0362   1.0000   1
1402.446   1.0550   0.0371   1.0000   1
1402.464   1.0313   0.0290   1.0000   1
1402.483   0.9792   0.0328   1.0000   1
1402.502   1.0115   0.0365   1.0000   1
1402.520   0.9777   0.0361   1.0000   1
1402.539   0.9866   0.0303   1.0000   1
1402.557   0.9672   0.0307   1.0000   1
1402.576   1.0131   0.0366   1.0000   1
1402.595   1.0184   0.0366   0.9999   1
1402.613   0.9787   0.0303   0.9999   1
1402.632   0.9904   0.0310   0.9997   1
1402.650   0.9810   0.0364   0.9989   1
1402.669   0.9262   0.0355   0.9963   1
1402.688   0.9687   0.0304   0.9883   1
1402.706   0.9964   0.0333   0.9681   1
1402.725   0.9184   0.0325   0.9263   1
1402.744   0.8742   0.0352   0.8549   1
1402.762   0.7367   0.0283   0.7542   1
1402.781   0.6220   0.0287   0.6438   1
1402.800   0.5490   0.0280   0.5492   1
1402.818   0.4660   0.0265   0.4913   1
1402.837   0.4471   0.0262   0.4835   1
1402.855   0.5071   0.0294   0.5180   1
1402.874   0.5383   0.0303   0.5802   1
1402.893   0.6397   0.0421   0.6455   1
1402.911   0.6358   0.0418   0.6865   1
1402.930   0.7023   0.0433   0.6934   1
1402.948   0.6151   0.0346   0.6737   1
1402.967   0.6267   0.0355   0.6431   1
1402.986   0.5970   0.0407   0.6183   1
1403.004   0.5713   0.0402   0.6082   1
1403.023   0.6051   0.0403   0.6158   1
1403.042   0.6470   0.0314   0.6414   1
1403.060   0.6502   0.0413   0.6811   1
1403.079   0.6685   0.0412   0.7290   1
1403.098   0.7056   0.0422   0.7784   1
1403.116   0.7893   0.0368   0.8225   1
1403.135   0.8497   0.0384   0.8575   1
1403.153   0.9583   0.0467   0.8820   1
1403.172   0.9129   0.0456   0.8971   1
1403.191   0.8423   0.0372   0.9047   1
1403.209   0.9054   0.0388   0.9078   1
1403.228   0.8574   0.0442   0.9085   1
1403.246   0.8798   0.0445   0.9085   1
1403.265   0.8820   0.0441   0.9087   1
1403.284   0.9044   0.0338   0.9096   1
1403.302   0.9185   0.0444   0.9115   1
1403.321   0.9320   0.0447   0.9144   1
1403.340   0.9577   0.0449   0.9182   1
1403.358   0.8861   0.0366   0.9228   1
1403.377   0.9664   0.0383   0.9280   1
1403.395   0.9491   0.0439   0.9336   1
1403.414   0.8201   0.0422   0.9394   1
1403.433   0.8529   0.0424   0.9452   1
1403.451   0.9476   0.0331   0.9504   1
1403.470   0.9774   0.0437   0.9551   1
1403.489   0.9009   0.0426   0.9585   1
1403.507   0.9348   0.0433   0.9605   1
1403.526   0.9705   0.0363   0.9605   1
1403.545   0.9225   0.0361   0.9582   1
1403.563   1.0144   0.0434   0.9528   1
1403.582   0.8453   0.0407   0.9443   1
1403.600   0.9342   0.0351   0.9322   1
1403.619   0.9009   0.0353   0.9163   1
1403.638   0.8814   0.0406   0.8968   1
1403.656   0.8682   0.0402   0.8741   1
1403.675   0.8807   0.0401   0.8488   1
1403.693   0.8300   0.0297   0.8221   1
1403.712   0.7500   0.0376   0.7949   1
1403.731   0.7407   0.0371   0.7686   1
1403.749   0.7038   0.0365   0.7440   1
1403.768   0.7707   0.0312   0.7191   1
1403.787   0.7054   0.0307   0.6833   1
1403.805   0.5943   0.0336   0.6169   1
1403.824   0.5179   0.0320   0.5075   1
1403.843   0.3458   0.0238   0.3846   1
1403.861   0.2527   0.0226   0.3134   1
1403.880   0.3615   0.0281   0.3279   1
1403.898   0.3985   0.0289   0.4296   1
1403.917   0.5198   0.0310   0.5778   1
1403.936   0.6994   0.0256   0.7037   1
1403.954   0.7204   0.0343   0.7751   1
1403.973   0.7416   0.0343   0.7910   1
1403.991   0.7457   0.0341   0.7526   1
1404.010   0.7054   0.0277   0.6925   1
1404.029   0.6225   0.0270   0.6683   1
1404.047   0.7680   0.0340   0.7190   1
1404.066   0.8039   0.0343   0.8221   1
1404.085   0.9144   0.0360   0.9100   1
1404.103   0.9258   0.0266   0.9590   1
1404.122   0.9592   0.0358   0.9786   1
1404.140   0.9687   0.0360   0.9866   1
1404.159   0.9923   0.0361   0.9913   1
1404.178   1.0016   0.0266   0.9944   1
1404.196   1.0414   0.0361   0.9964   1
1404.215   0.9472   0.0349   0.9978   1
1404.234   1.0358   0.0358   0.9986   1
1404.252   0.9990   0.0290   0.9992   1
1404.271   0.9923   0.0293   0.9995   1
1404.289   0.9863   0.0345   0.9997   1
1404.308   1.0207   0.0348   0.9998   1
1404.327   1.0041   0.0345   0.9999   1
1404.345   1.0225   0.0253   0.9999   1
1404.364   1.0682   0.0348   1.0000   1
1404.383   0.9847   0.0336   1.0000   1
1404.401   1.0362   0.0342   1.0000   1
1404.420   0.9870   0.0243   1.0000   1
1404.438   0.9839   0.0331   1.0000   1
1404.457   1.0351   0.0335   1.0000   1
1404.476   1.0289   0.0336   1.0000   1
1404.494   0.9960   0.0269   1.0000   1
1404.513   0.9903   0.0274   1.0000   1
1404.532   0.9834   0.0325   1.0000   1
1404.550   1.0056   0.0327   1.0000   1
1404.569   1.0142   0.0327   1.0000   1
1404.587   0.9851   0.0232   1.0000   1
1404.606   0.9902   0.0321   1.0000   1
1404.625   0.9802   0.0319   1.0000   1
