# Best-fit normalized data and profile from VoigtFit
# column 1 : Wavelength
# column 2 : Normalized flux
# column 3 : Normalized error
# column 4 : Best-fit profile
# column 5 : Pixel mask, 1=included, 0=excluded
1547.424   0.9069   0.1523   1.0000   1
1547.443   1.2008   0.1683   1.0000   1
1547.462   0.8674   0.1489   1.0000   1
1547.480   1.1985   0.1365   1.0000   1
1547.499   1.0067   0.1334   1.0000   1
1547.518   0.9287   0.1550   1.0000   1
1547.536   1.0723   0.1627   1.0000   1
1547.555   0.8979   0.1562   1.0000   1
1547.574   1.1039   0.1611   1.0000   1
1547.592   0.9410   0.1536   1.0000   1
1547.611   1.1184   0.1278   1.0000   1
1547.629   0.9871   0.1279   1.0000   1
1547.648   0.9520   0.1510   1.0000   1
1547.667   1.0802   0.1597   1.0000   1
1547.685   1.0126   0.1564   1.0000   1
1547.704   0.9790   0.1527   1.0000   1
1547.722   1.1961   0.1600   1.0000   1
1547.741   1.0626   0.1297   1.0000   1
1547.760   1.0269   0.1287   1.0000   1
1547.778   0.7831   0.1476   1.0000   1
1547.797   1.0197   0.1548   1.0000   1
1547.816   1.1045   0.1574   1.0000   1
1547.834   1.0579   0.1499   1.0000   1
1547.853   1.0783   0.1542   1.0000   1
1547.872   0.9701   0.1231   1.0000   1
1547.890   0.9125   0.1199   0.9999   1
1547.909   1.1551   0.1579   0.9999   1
1547.927   0.8545   0.1433   0.9998   1
1547.946   1.0198   0.1532   0.9997   1
1547.965   1.2195   0.1575   0.9994   1
1547.983   1.0599   0.1482   0.9990   1
1548.002   0.8647   0.1393   0.9982   1
1548.021   1.0345   0.1252   0.9970   1
1548.039   0.9231   0.1238   0.9949   1
1548.058   1.0390   0.1523   0.9917   1
1548.076   0.7867   0.1347   0.9865   1
1548.095   0.9870   0.1486   0.9780   1
1548.114   1.0602   0.1451   0.9627   1
1548.132   1.0575   0.1483   0.9330   1
1548.151   0.9404   0.1187   0.8758   1
1548.169   0.8832   0.1121   0.7779   1
1548.188   0.5555   0.1206   0.6362   1
1548.207   0.4400   0.1108   0.4791   1
1548.225   0.4415   0.1087   0.3472   1
1548.244   0.3687   0.1046   0.2641   1
1548.263   0.1185   0.0871   0.2355   1
1548.281   0.3181   0.0819   0.2497   1
1548.300   0.3232   0.0836   0.2890   1
1548.319   0.3861   0.1022   0.3307   1
1548.337   0.3578   0.1044   0.3537   1
1548.356   0.3789   0.0985   0.3524   1
1548.374   0.3201   0.0998   0.3357   1
1548.393   0.2543   0.0973   0.3154   1
1548.412   0.3357   0.0798   0.2988   1
1548.430   0.1911   0.0766   0.2896   1
1548.449   0.3775   0.0969   0.2886   1
1548.467   0.3053   0.0999   0.2960   1
1548.486   0.1799   0.0933   0.3121   1
1548.505   0.2626   0.0956   0.3373   1
1548.523   0.5674   0.1118   0.3709   1
1548.542   0.4309   0.0873   0.4132   1
1548.561   0.4647   0.0905   0.4629   1
1548.579   0.4387   0.0977   0.5182   1
1548.598   0.6500   0.1176   0.5769   1
1548.617   0.6008   0.0951   0.6352   1
1548.635   0.7873   0.1025   0.6891   1
1548.654   0.6850   0.1038   0.7349   1
1548.672   0.7462   0.0871   0.7697   1
1548.691   0.8191   0.0922   0.7920   1
1548.710   0.7381   0.0948   0.8024   1
1548.728   0.8769   0.1109   0.8028   1
1548.747   0.7660   0.1038   0.7979   1
1548.765   0.6830   0.0984   0.7918   1
1548.784   0.8807   0.1050   0.7886   1
1548.803   0.7880   0.1018   0.7915   1
1548.821   0.8579   0.0930   0.8014   1
1548.840   0.7367   0.0875   0.8176   1
1548.859   0.8400   0.0952   0.8379   1
1548.877   0.7791   0.0930   0.8589   1
1548.896   0.7806   0.1008   0.8764   1
1548.914   1.0077   0.1068   0.8867   1
1548.933   0.8908   0.1053   0.8870   1
1548.952   0.8827   0.0892   0.8753   1
1548.970   0.9118   0.0915   0.8520   1
1548.989   0.7543   0.0958   0.8180   1
1549.008   0.6758   0.0920   0.7757   1
1549.026   0.8061   0.0914   0.7283   1
1549.045   0.7334   0.0871   0.6784   1
1549.063   0.5718   0.0863   0.6298   1
1549.082   0.6105   0.0785   0.5857   1
1549.101   0.5883   0.0758   0.5479   1
1549.119   0.4341   0.0802   0.5187   1
1549.138   0.4424   0.0751   0.4991   1
1549.157   0.5536   0.1024   0.4896   1
1549.175   0.6737   0.1415   0.4906   1
1549.194   0.6521   0.1175   0.5022   1
1549.212   0.3678   0.1232   0.5237   1
1549.231   0.3748   0.0969   0.5535   1
1549.250   0.8346   0.1399   0.5891   1
1549.268   0.5908   0.1231   0.6268   1
1549.287   0.5378   0.1253   0.6599   1
1549.306   0.7138   0.1345   0.6809   1
1549.324   0.8594   0.1460   0.6823   1
1549.343   0.7352   0.1366   0.6586   1
1549.361   0.4027   0.1134   0.6131   1
1549.380   0.7013   0.1073   0.5549   1
1549.399   0.5537   0.1023   0.4955   1
1549.417   0.3844   0.1033   0.4483   1
1549.436   0.4735   0.1109   0.4217   1
1549.455   0.5024   0.1166   0.4199   1
1549.473   0.4852   0.1093   0.4449   1
1549.492   0.5277   0.1186   0.4969   1
1549.510   0.7037   0.1266   0.5716   1
1549.529   0.8372   0.1395   0.6603   1
1549.548   0.7699   0.1070   0.7510   1
1549.566   0.8681   0.1357   0.8328   1
1549.585   0.8555   0.1115   0.8972   1
1549.603   0.8277   0.1315   0.9421   1
1549.622   0.9375   0.1359   0.9703   1
1549.641   1.0097   0.1404   0.9860   1
1549.659   0.8331   0.1345   0.9938   1
1549.678   1.1430   0.1460   0.9975   1
1549.697   0.9153   0.1332   0.9991   1
1549.715   1.0670   0.1162   0.9997   1
1549.734   0.9916   0.1359   0.9999   1
1549.753   0.8725   0.1099   1.0000   1
1549.771   1.0801   0.1407   1.0000   1
1549.790   0.8906   0.1278   1.0000   1
1549.808   0.8352   0.1280   1.0000   1
1549.827   1.1530   0.1430   1.0000   1
1549.846   0.9766   0.1306   1.0000   1
1549.864   1.0902   0.1364   1.0000   1
1549.883   1.3166   0.1460   1.0000   1
1549.901   1.1664   0.1151   1.0000   1
1549.920   0.9349   0.1075   1.0000   1
1549.939   0.8438   0.1225   1.0000   1
1549.957   0.7978   0.1210   1.0000   1
1549.976   1.0011   0.1257   1.0000   1
1549.995   0.9980   0.1263   1.0000   1
1550.013   0.9758   0.1283   1.0000   1
1550.032   1.2533   0.1385   1.0000   1
1550.050   1.1994   0.1386   1.0000   1
1550.069   1.0242   0.1048   1.0000   1
1550.088   0.7648   0.0969   1.0000   1
1550.106   1.0869   0.1273   1.0000   1
1550.125   0.9583   0.1234   1.0000   1
1550.144   0.9665   0.1248   1.0000   1
1550.162   1.1565   0.1296   1.0000   1
1550.181   0.7357   0.1099   1.0000   1
1550.199   0.9155   0.1167   1.0000   1
1550.218   1.1440   0.1269   1.0000   1
1550.237   0.8353   0.0936   1.0000   1
1550.255   0.8191   0.1154   1.0000   1
1550.274   1.0463   0.1028   1.0000   1
1550.293   0.9257   0.1196   1.0000   1
1550.311   0.9137   0.1156   1.0000   1
1550.321   0.9156   0.1179   1.0000   1
1550.340   1.1902   0.1266   1.0000   1
1550.358   1.0949   0.1262   1.0000   1
1550.377   1.0276   0.1229   1.0000   1
1550.396   1.0926   0.1257   1.0000   1
1550.414   0.8497   0.1128   1.0000   1
1550.433   0.9392   0.0972   1.0000   1
1550.451   1.0964   0.1030   1.0000   1
1550.470   1.0995   0.1223   1.0000   1
1550.489   1.1431   0.1224   1.0000   1
1550.507   0.8709   0.1147   0.9999   1
1550.526   0.9779   0.1168   0.9999   1
1550.545   1.1667   0.1239   0.9998   1
1550.563   0.9981   0.1172   0.9996   1
1550.582   1.1549   0.1221   0.9992   1
1550.600   0.9456   0.0937   0.9987   1
1550.619   1.0602   0.1001   0.9978   1
1550.638   0.9973   0.1172   0.9963   1
1550.656   1.1525   0.1225   0.9940   1
1550.675   0.9260   0.1124   0.9902   1
1550.693   0.8266   0.1086   0.9837   1
1550.712   0.8647   0.1093   0.9711   1
1550.731   0.9523   0.1122   0.9455   1
1550.749   0.8761   0.1058   0.8977   1
1550.768   0.8605   0.0889   0.8199   1
1550.787   0.6615   0.0807   0.7168   1
1550.805   0.5207   0.0879   0.6108   1
1550.824   0.5737   0.0894   0.5285   1
1550.843   0.5286   0.0887   0.4883   1
1550.861   0.4347   0.0825   0.4914   1
1550.880   0.5583   0.0900   0.5251   1
1550.898   0.4915   0.0887   0.5650   1
1550.917   0.4448   0.0828   0.5910   1
1550.936   0.6789   0.0792   0.5960   1
1550.954   0.7105   0.0812   0.5843   1
1550.973   0.3859   0.0803   0.5667   1
1550.991   0.6479   0.0916   0.5505   1
1551.010   0.5232   0.0855   0.5399   1
1551.029   0.5696   0.0868   0.5368   1
1551.047   0.6180   0.0921   0.5414   1
1551.066   0.6167   0.0920   0.5536   1
1551.085   0.6136   0.0886   0.5732   1
1551.103   0.6461   0.0755   0.5995   1
1551.122   0.5267   0.0856   0.6317   1
1551.141   0.6379   0.0769   0.6682   1
1551.159   0.7331   0.0947   0.7071   1
1551.178   0.7682   0.0930   0.7469   1
1551.196   0.6994   0.0902   0.7853   1
1551.215   0.7725   0.0940   0.8199   1
1551.234   0.8928   0.0978   0.8493   1
1551.252   0.8963   0.1001   0.8719   1
1551.271   1.0002   0.0865   0.8867   1
1551.289   0.9304   0.1007   0.8945   1
1551.308   0.9229   0.0838   0.8964   1
1551.327   0.7447   0.0935   0.8944   1
1551.345   0.9466   0.0992   0.8909   1
1551.364   0.9195   0.0969   0.8884   1
1551.383   0.8794   0.0959   0.8888   1
1551.401   0.8268   0.0930   0.8929   1
1551.420   1.0106   0.0984   0.9009   1
1551.438   1.1300   0.1042   0.9115   1
1551.457   1.0330   0.0829   0.9231   1
1551.476   0.8188   0.0782   0.9334   1
1551.494   0.9503   0.0959   0.9404   1
1551.513   0.9007   0.0938   0.9424   1
1551.532   1.0222   0.0980   0.9384   1
1551.550   0.9292   0.0941   0.9280   1
1551.569   0.8484   0.0900   0.9114   1
1551.588   0.9280   0.0935   0.8892   1
1551.606   0.8310   0.0897   0.8630   1
1551.625   0.8911   0.0769   0.8338   1
1551.643   0.9434   0.0789   0.8037   1
1551.662   0.6509   0.0811   0.7748   1
1551.681   0.7028   0.0835   0.7484   1
1551.699   0.5654   0.0774   0.7265   1
1551.718   0.8904   0.0893   0.7105   1
1551.736   0.7801   0.0846   0.7013   1
1551.755   0.6336   0.0794   0.6995   1
1551.774   0.7549   0.0838   0.7050   1
1551.792   0.6898   0.0671   0.7174   1
1551.811   0.7539   0.0692   0.7360   1
1551.830   0.8786   0.0860   0.7585   1
1551.848   0.8728   0.0859   0.7829   1
1551.867   0.7491   0.0818   0.8054   1
1551.885   0.7479   0.0817   0.8216   1
1551.904   0.7955   0.0827   0.8271   1
1551.923   0.8130   0.0827   0.8185   1
1551.941   0.7459   0.0803   0.7952   1
1551.960   0.8277   0.0681   0.7596   1
1551.979   0.7840   0.0678   0.7186   1
1551.997   0.5506   0.0705   0.6810   1
1552.016   0.7007   0.0752   0.6548   1
1552.034   0.5476   0.0687   0.6458   1
1552.053   0.6066   0.0729   0.6574   1
1552.072   0.6774   0.0749   0.6879   1
1552.090   0.7664   0.0773   0.7340   1
1552.109   0.7430   0.0754   0.7891   1
1552.128   0.7735   0.0641   0.8449   1
1552.146   0.9303   0.0688   0.8950   1
1552.165   0.8688   0.0797   0.9346   1
1552.183   1.0711   0.0854   0.9626   1
1552.202   0.9133   0.0796   0.9802   1
1552.221   0.9753   0.0812   0.9903   1
1552.239   0.9922   0.0819   0.9956   1
1552.258   0.9458   0.0807   0.9982   1
1552.277   0.9960   0.0823   0.9993   1
1552.295   1.0158   0.0681   0.9997   1
1552.314   1.0589   0.0694   0.9999   1
1552.332   1.1026   0.0836   1.0000   1
1552.351   0.9184   0.0779   1.0000   1
1552.370   0.8532   0.0750   1.0000   1
1552.388   0.9220   0.0773   1.0000   1
1552.407   1.0846   0.0820   1.0000   1
1552.426   1.0784   0.0813   1.0000   1
1552.444   1.0059   0.0779   1.0000   1
1552.463   0.9415   0.0627   1.0000   1
1552.481   0.9025   0.0628   1.0000   1
1552.500   0.9240   0.0757   1.0000   1
1552.519   0.8950   0.0735   1.0000   1
1552.537   0.9618   0.0746   1.0000   1
1552.556   0.9592   0.0747   1.0000   1
1552.574   1.0251   0.0770   1.0000   1
1552.593   1.0008   0.0760   1.0000   1
1552.612   1.0234   0.0764   1.0000   1
1552.630   1.0623   0.0629   1.0000   1
1552.649   1.0337   0.0634   1.0000   1
1552.668   1.0732   0.0773   1.0000   1
1552.686   1.0089   0.0742   1.0000   1
1552.705   0.9143   0.0707   1.0000   1
1552.724   1.0423   0.0738   1.0000   1
1552.742   0.9888   0.0720   1.0000   1
1552.761   1.0281   0.0743   1.0000   1
1552.779   1.0634   0.0751   1.0000   1
1552.798   1.0649   0.0607   1.0000   1
1552.817   0.9916   0.0600   1.0000   1
1552.835   1.0055   0.0723   1.0000   1
