# Best-fit normalized data and profile from VoigtFit
# column 1 : Wavelength
# column 2 : Normalized flux
# column 3 : Normalized error
# column 4 : Best-fit profile
1402.071   1.0220   0.0502   1.0000   1
1402.089   1.0178   0.0474   1.0000   1
1402.108   0.9903   0.0512   1.0000   1
1402.126   0.9540   0.0545   1.0000   1
1402.145   1.1070   0.0514   1.0000   1
1402.164   0.9854   0.0464   1.0000   1
1402.182   0.9407   0.0499   1.0000   1
1402.201   1.0033   0.0555   1.0000   1
1402.220   0.9827   0.0453   1.0000   1
1402.238   1.0117   0.0548   1.0000   1
1402.257   0.9845   0.0460   1.0000   1
1402.275   1.0713   0.0558   1.0000   1
1402.294   1.0721   0.0455   1.0000   1
1402.313   0.9339   0.0531   1.0000   1
1402.331   1.0129   0.0495   1.0000   1
1402.350   1.0233   0.0500   1.0000   1
1402.368   1.0221   0.0448   1.0000   1
1402.387   1.0408   0.0545   1.0000   1
1402.406   1.0359   0.0552   1.0000   1
1402.424   0.9713   0.0425   1.0000   1
1402.443   1.0020   0.0490   1.0000   1
1402.462   0.9971   0.0546   1.0000   1
1402.480   1.0629   0.0564   1.0000   1
1402.499   1.0026   0.0459   1.0000   1
1402.518   1.0025   0.0470   1.0000   1
1402.536   1.0378   0.0561   1.0000   1
1402.555   0.9363   0.0550   1.0000   1
1402.573   0.9901   0.0474   1.0000   1
1402.592   0.8904   0.0469   0.9999   1
1402.611   0.9634   0.0564   0.9999   1
1402.629   0.9658   0.0569   0.9995   1
1402.648   0.9902   0.0487   0.9985   1
1402.666   0.9505   0.0489   0.9955   1
1402.685   0.9744   0.0576   0.9884   1
1402.704   1.0014   0.0588   0.9735   1
1402.722   0.9138   0.0485   0.9446   1
1402.741   0.9261   0.0522   0.8991   1
1402.760   0.7968   0.0511   0.8382   1
1402.778   0.7517   0.0549   0.7697   1
1402.797   0.6574   0.0455   0.7072   1
1402.816   0.7200   0.0546   0.6648   1
1402.834   0.6435   0.0461   0.6512   1
1402.853   0.6415   0.0493   0.6695   1
1402.871   0.7109   0.0560   0.7164   1
1402.890   0.7663   0.0743   0.7774   1
1402.909   0.7606   0.0637   0.8379   1
1402.927   0.8659   0.0676   0.8821   1
1402.946   0.8987   0.0803   0.8983   1
1402.964   1.0745   0.0861   0.8877   1
1402.983   0.8920   0.0684   0.8555   1
1403.002   0.8221   0.0668   0.8115   1
1403.020   0.7993   0.0770   0.7672   1
1403.039   0.8672   0.0812   0.7331   1
1403.058   0.6597   0.0749   0.7163   1
1403.076   0.6848   0.0593   0.7204   1
1403.095   0.7635   0.0796   0.7459   1
1403.113   0.7080   0.0786   0.7862   1
1403.132   0.8234   0.0826   0.8350   1
1403.151   0.8559   0.0711   0.8838   1
1403.169   0.9435   0.0756   0.9250   1
1403.188   1.1428   0.0938   0.9561   1
1403.207   0.9483   0.0881   0.9768   1
1403.225   1.0550   0.0922   0.9887   1
1403.244   1.0164   0.0721   0.9948   1
1403.262   1.0739   0.0939   0.9977   1
1403.281   1.0148   0.0934   0.9989   1
1403.300   0.9679   0.0918   0.9991   1
1403.318   0.8987   0.0777   0.9989   1
1403.337   1.0072   0.0814   0.9983   1
1403.356   0.9950   0.0950   0.9975   1
1403.374   0.9313   0.0939   0.9962   1
1403.393   0.9095   0.0814   0.9944   1
1403.411   0.9859   0.0846   0.9919   1
1403.430   1.0208   0.0968   0.9886   1
1403.449   1.1093   0.0997   0.9842   1
1403.467   0.9592   0.0966   0.9784   1
1403.486   1.0592   0.0791   0.9712   1
1403.505   0.9958   0.0984   0.9626   1
1403.523   1.0329   0.1006   0.9523   1
1403.542   0.9737   0.0975   0.9403   1
1403.560   0.9417   0.0858   0.9271   1
1403.579   0.8194   0.0837   0.9127   1
1403.598   0.8309   0.0963   0.8976   1
1403.616   0.7565   0.0933   0.8824   1
1403.635   0.9743   0.0853   0.8678   1
1403.654   0.9600   0.0876   0.8541   1
1403.672   0.8677   0.0979   0.8422   1
1403.691   0.8887   0.0989   0.8327   1
1403.709   0.9257   0.1006   0.8259   1
1403.728   0.9407   0.0849   0.8220   1
1403.747   0.8037   0.0853   0.8216   1
1403.765   0.7568   0.0955   0.8244   1
1403.784   0.8140   0.0965   0.8304   1
1403.803   0.9143   0.0845   0.8387   1
1403.821   0.8060   0.0810   0.8469   1
1403.840   0.9133   0.0989   0.8443   1
1403.858   0.6822   0.0907   0.8106   1
1403.877   0.7081   0.0905   0.7308   1
1403.896   0.7187   0.0698   0.6311   1
1403.914   0.5554   0.0849   0.5853   1
1403.933   0.4947   0.0801   0.6315   1
1403.952   0.6816   0.0880   0.7489   1
1403.970   0.8191   0.0769   0.8675   1
1403.989   0.8065   0.0787   0.9391   1
1404.007   1.0052   0.0961   0.9700   1
1404.026   0.7357   0.0900   0.9817   1
1404.045   1.0180   0.0798   0.9872   1
1404.063   0.8726   0.0780   0.9910   1
1404.082   0.9895   0.0931   0.9937   1
1404.101   1.0070   0.0931   0.9958   1
1404.119   1.0105   0.0950   0.9972   1
1404.138   1.1047   0.0691   0.9981   1
1404.156   0.9323   0.0871   0.9988   1
1404.175   0.9877   0.0887   0.9993   1
1404.194   0.9863   0.0879   0.9995   1
1404.212   0.9930   0.0725   0.9997   1
1404.231   0.9651   0.0733   0.9998   1
1404.249   1.1202   0.0899   0.9999   1
1404.268   1.0446   0.0869   0.9999   1
1404.287   1.0322   0.0708   1.0000   1
1404.305   0.9184   0.0699   1.0000   1
1404.324   1.0249   0.0837   1.0000   1
1404.343   1.0524   0.0838   1.0000   1
1404.361   1.0176   0.0822   1.0000   1
1404.380   1.0809   0.0613   1.0000   1
1404.399   1.0710   0.0831   1.0000   1
1404.417   0.9843   0.0803   1.0000   1
1404.436   0.9975   0.0798   1.0000   1
1404.454   1.0420   0.0649   1.0000   1
1404.473   1.0569   0.0654   1.0000   1
1404.492   1.0406   0.0759   1.0000   1
1404.510   1.0681   0.0767   1.0000   1
1404.529   0.9878   0.0602   1.0000   1
1404.547   0.9593   0.0608   1.0000   1
1404.566   0.9527   0.0711   1.0000   1
1404.585   0.8970   0.0693   1.0000   1
1404.603   1.0414   0.0725   1.0000   1
1404.622   1.0555   0.0520   1.0000   1
1404.641   0.9537   0.0680   1.0000   1
