# Best-fit normalized data and profile from VoigtFit
# column 1 : Wavelength
# column 2 : Normalized flux
# column 3 : Normalized error
# column 4 : Best-fit profile
# column 5 : Pixel mask, 1=included, 0=excluded
1300.874   1.0624   0.0413   1.0000   1
1300.893   1.1115   0.0513   1.0000   1
1300.911   1.0359   0.0353   1.0000   1
1300.930   0.9322   0.0480   1.0000   1
1300.948   1.0867   0.0507   1.0000   1
1300.967   0.9623   0.0341   1.0000   1
1300.986   1.0014   0.0495   1.0000   1
1301.004   1.0910   0.0507   1.0000   1
1301.023   1.0072   0.0351   1.0000   1
1301.042   0.9393   0.0479   1.0000   1
1301.060   0.8983   0.0474   1.0000   1
1301.079   0.9921   0.0348   1.0000   1
1301.098   1.0577   0.0502   1.0000   1
1301.116   1.0151   0.0403   1.0000   1
1301.135   0.9446   0.0403   1.0000   1
1301.153   0.9959   0.0496   1.0000   1
1301.172   0.9816   0.0403   1.0000   1
1301.191   1.0678   0.0420   1.0000   1
1301.209   1.1347   0.0513   1.0000   1
1301.228   1.0267   0.0352   1.0000   1
1301.247   1.0489   0.0503   1.0000   1
1301.265   0.9640   0.0494   1.0000   1
1301.284   1.0429   0.0354   1.0000   1
1301.303   1.0180   0.0493   1.0000   1
1301.321   0.9268   0.0481   1.0000   1
1301.340   0.9976   0.0352   1.0000   1
1301.359   1.0860   0.0515   1.0000   1
1301.377   1.0260   0.0506   1.0000   1
1301.396   1.0252   0.0357   1.0000   1
1301.414   1.0723   0.0512   1.0000   1
1301.433   0.9738   0.0400   1.0000   1
1301.452   0.9108   0.0401   1.0000   1
1301.470   1.0347   0.0507   1.0000   1
1301.489   0.9467   0.0389   1.0000   1
1301.508   0.9158   0.0398   1.0000   1
1301.526   0.9743   0.0496   0.9999   1
1301.545   0.9103   0.0340   0.9999   1
1301.563   0.9405   0.0497   0.9999   1
1301.582   0.8948   0.0482   0.9999   1
1301.601   0.9947   0.0353   0.9999   1
1301.619   0.9236   0.0488   0.9999   1
1301.638   0.9594   0.0497   0.9999   1
1301.657   0.9288   0.0345   0.9999   1
1301.675   0.9165   0.0485   0.9998   1
1301.694   0.9055   0.0486   0.9997   1
1301.713   0.8677   0.0337   0.9993   1
1301.731   0.8331   0.0463   0.9984   1
1301.750   0.8710   0.0333   0.9966   1
1301.769   0.8537   0.0322   0.9928   1
1301.787   0.8851   0.0370   0.9856   1
1301.806   0.8641   0.0337   0.9725   1
1301.824   0.8690   0.0323   0.9502   1
1301.843   0.8292   0.0363   0.9157   1
1301.862   0.7886   0.0294   0.8647   1
1301.880   0.8065   0.0351   0.7959   1
1301.899   0.7180   0.0337   0.7115   1
1301.918   0.6226   0.0268   0.6143   1
1301.936   0.6108   0.0337   0.5126   1
1301.955   0.5896   0.0290   0.4153   1
1301.974   0.5199   0.0245   0.3257   1
1301.992   0.2326   0.0245   0.2478   1
1302.011   0.0998   0.0176   0.1825   1
1302.029   0.0311   0.0135   0.1277   1
1302.048   0.0306   0.0179   0.0837   1
1302.067   0.0281   0.0129   0.0505   1
1302.085   -0.0121   0.0139   0.0279   1
1302.104   0.0005   0.0151   0.0140   1
1302.123   -0.0088   0.0120   0.0065   1
1302.141   0.0151   0.0142   0.0031   1
1302.160   0.0159   0.0169   0.0016   1
1302.179   0.0163   0.0123   0.0009   1
1302.197   0.0323   0.0157   0.0007   1
1302.216   -0.0048   0.0156   0.0008   1
1302.235   -0.0083   0.0115   0.0012   1
1302.253   0.0310   0.0164   0.0025   1
1302.272   0.0471   0.0176   0.0058   1
1302.290   0.0175   0.0126   0.0147   1
1302.309   0.0497   0.0168   0.0359   1
1302.328   0.1155   0.0177   0.0802   1
1302.346   0.2433   0.0207   0.1583   1
1302.365   0.2751   0.0238   0.2601   1
1302.383   0.3215   0.0232   0.3396   1
1302.402   0.4245   0.0264   0.3504   1
1302.421   0.3131   0.0229   0.3154   1
1302.439   0.2793   0.0225   0.2956   1
1302.458   0.2913   0.0229   0.3005   1
1302.477   0.3030   0.0226   0.2914   1
1302.495   0.2009   0.0187   0.2652   1
1302.514   0.2412   0.0251   0.2744   1
1302.533   0.5115   0.0270   0.3660   1
1302.551   0.5817   0.0260   0.5432   1
1302.570   0.6675   0.0352   0.7255   1
1302.589   0.7294   0.0315   0.7877   1
1302.607   0.6450   0.0272   0.6673   1
1302.626   0.5464   0.0326   0.4318   1
1302.644   0.2242   0.0185   0.2232   1
1302.663   0.0978   0.0175   0.1046   1
1302.682   0.0077   0.0172   0.0533   1
1302.700   0.0267   0.0139   0.0293   1
1302.719   0.0077   0.0139   0.0152   1
1302.738   -0.0309   0.0149   0.0088   1
1302.756   0.0018   0.0121   0.0099   1
1302.775   0.0537   0.0156   0.0254   1
1302.794   0.0841   0.0191   0.0766   1
1302.812   0.1870   0.0168   0.1723   1
1302.831   0.2766   0.0234   0.2617   1
1302.850   0.2014   0.0236   0.2755   1
1302.868   0.2459   0.0181   0.2208   1
1302.887   0.1732   0.0202   0.1473   1
1302.905   0.0715   0.0164   0.0881   1
1302.924   0.0376   0.0153   0.0496   1
1302.943   0.0276   0.0140   0.0270   1
1302.961   0.0440   0.0142   0.0145   1
1302.980   -0.0054   0.0131   0.0079   1
1302.998   0.0138   0.0131   0.0044   1
1303.017   -0.0074   0.0124   0.0025   1
1303.036   0.0307   0.0166   0.0014   1
1303.054   -0.0230   0.0128   0.0009   1
1303.073   0.0044   0.0127   0.0006   1
1303.092   0.0018   0.0160   0.0004   1
1303.110   0.0227   0.0140   0.0003   1
1303.129   -0.0075   0.0119   0.0003   1
1303.148   -0.0338   0.0161   0.0002   1
1303.166   -0.0192   0.0131   0.0002   1
1303.185   0.0089   0.0128   0.0001   1
1303.204   -0.0073   0.0159   0.0001   1
1303.222   0.0119   0.0134   0.0000   1
1303.241   -0.0099   0.0131   0.0001   1
1303.259   0.0048   0.0164   0.0004   1
1303.278   0.0067   0.0133   0.0025   1
1303.297   0.0281   0.0137   0.0148   1
1303.315   0.0683   0.0180   0.0610   1
1303.334   0.1474   0.0157   0.1719   1
1303.353   0.3991   0.0259   0.3460   1
1303.371   0.5119   0.0321   0.5337   1
1303.390   0.7029   0.0270   0.6902   1
1303.409   0.7571   0.0337   0.8021   1
1303.427   0.8407   0.0384   0.8767   1
1303.446   0.9570   0.0302   0.9254   1
1303.465   1.0003   0.0373   0.9564   1
1303.483   0.9532   0.0358   0.9754   1
1303.502   1.0063   0.0372   0.9865   1
1303.520   1.0675   0.0355   0.9928   1
1303.539   0.9853   0.0364   0.9963   1
1303.558   0.9572   0.0366   0.9981   1
1303.576   1.0076   0.0343   0.9990   1
1303.595   1.0088   0.0338   0.9995   1
1303.613   1.0506   0.0426   0.9997   1
1303.632   0.9770   0.0343   0.9998   1
1303.651   1.0789   0.0346   0.9998   1
1303.669   1.0539   0.0427   0.9999   1
1303.688   1.0751   0.0353   0.9999   1
1303.707   0.9794   0.0335   0.9999   1
1303.725   1.1596   0.0442   0.9999   1
1303.744   1.0597   0.0322   0.9999   1
1303.763   1.0595   0.0382   0.9999   1
1303.781   1.1327   0.0433   0.9999   1
1303.800   0.9425   0.0328   0.9999   1
1303.819   1.0691   0.0354   0.9999   1
1303.837   1.0146   0.0419   0.9999   1
1303.856   1.0356   0.0318   0.9999   1
1303.874   1.0142   0.0378   0.9999   1
1303.893   0.9881   0.0419   0.9999   1
1303.912   0.9443   0.0308   0.9999   1
1303.930   0.9719   0.0370   0.9999   1
1303.949   0.9916   0.0417   1.0000   1
1303.968   0.9497   0.0307   1.0000   1
1303.986   0.9545   0.0371   1.0000   1
1304.005   0.9598   0.0363   1.0000   1
1304.024   0.9893   0.0339   1.0000   1
1304.042   0.9808   0.0373   1.0000   1
1304.061   1.0323   0.0376   1.0000   1
1304.080   1.0043   0.0343   1.0000   1
1304.098   0.9202   0.0357   1.0000   1
1304.117   0.9279   0.0332   1.0000   1
