# Best-fit normalized data and profile from VoigtFit
# column 1 : Wavelength
# column 2 : Normalized flux
# column 3 : Normalized error
# column 4 : Best-fit profile
# column 5 : Pixel mask, 1=included, 0=excluded
1860.934   1.0315   0.0444   1.0000   1
1860.972   0.9913   0.0344   1.0000   1
1861.010   1.0787   0.0456   1.0000   1
1861.048   1.0073   0.0380   1.0000   1
1861.086   0.9472   0.0430   1.0000   1
1861.125   1.0410   0.0351   1.0000   1
1861.163   1.0472   0.0454   1.0000   1
1861.201   1.0085   0.0377   1.0000   1
1861.239   1.0153   0.0444   1.0000   1
1861.278   0.9960   0.0348   1.0000   1
1861.316   0.9731   0.0434   1.0000   1
1861.354   1.0917   0.0390   1.0000   1
1861.392   1.0034   0.0442   1.0000   1
1861.430   1.0723   0.0358   1.0000   1
1861.469   1.0013   0.0441   1.0000   1
1861.507   1.0441   0.0382   1.0000   1
1861.545   1.0757   0.0360   1.0000   1
1861.583   1.0307   0.0446   1.0000   1
1861.621   0.9504   0.0432   1.0000   1
1861.660   0.9080   0.0356   1.0000   1
1861.698   0.9189   0.0340   1.0000   1
1861.736   0.9016   0.0423   1.0000   1
1861.774   0.9968   0.0434   1.0000   1
1861.812   0.9827   0.0367   1.0000   1
1861.851   0.8919   0.0337   1.0000   1
1861.889   0.9049   0.0422   1.0000   1
1861.927   0.8665   0.0417   1.0000   1
1861.965   0.7902   0.0332   1.0000   1
1862.004   0.8174   0.0327   1.0000   1
1862.042   0.8775   0.0414   1.0000   1
1862.080   0.8451   0.0408   1.0000   1
1862.118   0.8481   0.0289   1.0000   1
1862.156   0.7491   0.0392   1.0000   1
1862.195   0.8003   0.0398   1.0000   1
1862.233   0.7997   0.0402   1.0000   1
1862.271   0.7727   0.0278   1.0000   1
1862.309   0.9140   0.0422   1.0000   1
1862.347   0.8294   0.0406   1.0000   1
1862.386   0.8394   0.0413   1.0000   1
1862.424   0.8470   0.0290   0.9999   1
1862.462   0.8075   0.0400   0.9995   1
1862.500   0.8405   0.0413   0.9982   1
1862.539   0.8735   0.0412   0.9940   1
1862.577   0.9141   0.0302   0.9842   1
1862.615   0.9046   0.0425   0.9627   1
1862.653   0.9319   0.0432   0.9263   1
1862.691   0.8878   0.0348   0.8753   1
1862.729   0.8993   0.0348   0.8192   1
1862.768   0.8322   0.0408   0.7724   1
1862.806   0.6987   0.0380   0.7514   1
1862.844   0.6918   0.0314   0.7607   1
1862.882   0.8018   0.0328   0.7982   1
1862.920   0.8560   0.0422   0.8525   1
1862.959   1.0300   0.0453   0.9074   1
1862.997   0.9289   0.0354   0.9499   1
1863.035   1.0419   0.0368   0.9771   1
1863.073   0.9082   0.0434   0.9911   1
1863.112   1.0346   0.0454   0.9969   1
1863.150   0.9563   0.0361   0.9563   1
1863.188   1.0347   0.0365   0.9998   1
1863.226   1.0332   0.0454   0.9999   1
1863.264   0.9756   0.0362   1.0000   1
1863.303   1.0064   0.0448   1.0000   1
1863.341   1.0135   0.0361   1.0000   1
1863.379   1.0707   0.0459   1.0000   1
1863.417   1.0432   0.0375   1.0000   1
1863.455   0.9918   0.0440   0.9918   1
1863.494   0.9876   0.0356   0.9876   1
1863.532   1.0385   0.0451   1.0000   1
1863.570   1.0258   0.0377   1.0000   1
1863.608   0.9914   0.0438   0.9915   1
1863.647   0.9350   0.0346   0.9352   1
1863.685   1.0077   0.0451   0.9994   1
1863.723   1.0178   0.0378   0.9910   1
1863.761   0.9193   0.0430   0.9414   1
1863.799   0.9095   0.0342   0.8980   1
1863.838   0.9240   0.0433   0.9449   1
1863.876   1.0122   0.0373   0.9887   1
1863.914   0.9938   0.0441   0.9958   1
1863.952   0.9748   0.0347   0.9933   1
1863.991   1.0089   0.0373   0.9890   1
1864.029   0.9709   0.0440   0.9829   1
1864.067   0.9384   0.0430   0.9745   1
1864.105   1.0446   0.0356   0.9636   1
1864.143   0.9169   0.0362   0.9500   1
1864.181   0.8640   0.0415   0.9338   1
1864.220   0.9038   0.0418   0.9154   1
1864.258   0.9243   0.0332   0.8952   1
1864.296   0.8911   0.0350   0.8746   1
1864.334   0.8861   0.0418   0.8505   1
1864.373   0.7681   0.0391   0.7735   1
1864.411   0.6848   0.0293   0.6844   1
1864.449   0.7708   0.0334   0.7678   1
1864.487   0.7603   0.0388   0.8131   1
1864.525   0.8095   0.0396   0.8187   1
1864.564   0.7905   0.0281   0.8281   1
1864.602   0.8509   0.0404   0.8423   1
1864.640   0.9770   0.0432   0.8603   1
1864.678   0.8759   0.0410   0.8804   1
1864.716   0.9255   0.0296   0.9013   1
1864.755   0.9381   0.0424   0.9214   1
1864.793   0.9227   0.0422   0.9397   1
1864.831   0.9919   0.0434   0.9554   1
1864.869   0.9281   0.0298   0.9684   1
1864.908   1.0729   0.0448   0.9783   1
1864.946   0.9040   0.0419   0.9856   1
1864.984   0.8080   0.0400   0.9909   1
1865.022   0.9861   0.0307   0.9944   1
1865.060   0.9710   0.0430   0.9967   1
1865.099   1.0150   0.0439   0.9981   1
1865.137   0.9950   0.0372   0.9990   1
1865.175   0.9869   0.0332   0.9994   1
1865.213   1.0842   0.0453   0.9997   1
1865.251   0.9651   0.0420   0.9999   1
