# Best-fit normalized data and profile from VoigtFit
# column 1 : Wavelength
# column 2 : Normalized flux
# column 3 : Normalized error
# column 4 : Best-fit profile
1402.073   0.9471   0.0384   1.0000   1
1402.091   0.9879   0.0389   1.0000   1
1402.110   1.0188   0.0393   1.0000   1
1402.128   1.0224   0.0324   1.0000   1
1402.147   1.0090   0.0330   1.0000   1
1402.166   1.0269   0.0388   1.0000   1
1402.184   1.0964   0.0396   1.0000   1
1402.203   1.0225   0.0317   1.0000   1
1402.221   1.0229   0.0327   1.0000   1
1402.240   1.0069   0.0380   1.0000   1
1402.259   0.9923   0.0312   1.0000   1
1402.277   1.0892   0.0392   1.0000   1
1402.296   1.0322   0.0383   1.0000   1
1402.315   0.9872   0.0322   1.0000   1
1402.333   0.9924   0.0314   1.0000   1
1402.352   1.0117   0.0381   1.0000   1
1402.371   1.0055   0.0381   1.0000   1
1402.389   0.9622   0.0321   1.0000   1
1402.408   0.9736   0.0316   1.0000   1
1402.426   1.0148   0.0383   1.0000   1
1402.445   0.9403   0.0375   1.0000   1
1402.464   0.9619   0.0323   1.0000   1
1402.482   1.0488   0.0327   1.0000   1
1402.501   0.9661   0.0383   1.0000   1
1402.519   0.9922   0.0388   1.0000   1
1402.538   0.9716   0.0384   1.0000   1
1402.557   0.9565   0.0291   0.9999   1
1402.575   0.9268   0.0379   0.9999   1
1402.594   0.9831   0.0390   0.9997   1
1402.613   1.0436   0.0399   0.9994   1
1402.631   0.9849   0.0298   0.9989   1
1402.650   0.9487   0.0387   0.9977   1
1402.669   0.9792   0.0392   0.9947   1
1402.687   0.9613   0.0332   0.9835   1
1402.706   0.9180   0.0388   0.9475   1
1402.724   0.8793   0.0328   0.8687   1
1402.743   0.7138   0.0361   0.7564   1
1402.762   0.6810   0.0303   0.6686   1
1402.780   0.6373   0.0348   0.6601   1
1402.799   0.7708   0.0319   0.7227   1
1402.817   0.8020   0.0382   0.8028   1
1402.836   0.8504   0.0334   0.8433   1
1402.855   0.8271   0.0388   0.8449   1
1402.873   0.8188   0.0337   0.8282   1
1402.892   0.9043   0.0533   0.8086   1
1402.911   0.9256   0.0544   0.7934   1
1402.929   0.8314   0.0520   0.7843   1
1402.948   0.8410   0.0531   0.7824   1
1402.966   0.7937   0.0399   0.7879   1
1402.985   0.8831   0.0540   0.8007   1
1403.004   0.8413   0.0538   0.8191   1
1403.022   0.8523   0.0540   0.8415   1
1403.041   0.8584   0.0422   0.8665   1
1403.060   0.9993   0.0579   0.8918   1
1403.078   0.9302   0.0569   0.9155   1
1403.097   0.8810   0.0560   0.9368   1
1403.116   1.0054   0.0588   0.9546   1
1403.134   1.0320   0.0462   0.9683   1
1403.153   1.0516   0.0604   0.9786   1
1403.171   0.9498   0.0585   0.9858   1
1403.190   1.0735   0.0616   0.9902   1
1403.209   1.0427   0.0478   0.9923   1
1403.227   1.0235   0.0611   0.9927   1
1403.246   1.0536   0.0624   0.9915   1
1403.264   0.9552   0.0609   0.9886   1
1403.283   0.9807   0.0482   0.9842   1
1403.302   1.0331   0.0627   0.9781   1
1403.320   1.0966   0.0642   0.9702   1
1403.339   1.0747   0.0642   0.9603   1
1403.358   1.0346   0.0641   0.9485   1
1403.376   0.9986   0.0497   0.9353   1
1403.395   0.9251   0.0619   0.9208   1
1403.414   0.8730   0.0613   0.9056   1
1403.432   0.8497   0.0608   0.8908   1
1403.451   0.8811   0.0491   0.8769   1
1403.469   0.7931   0.0608   0.8647   1
1403.488   0.8304   0.0616   0.8549   1
1403.507   0.8733   0.0621   0.8439   1
1403.525   0.8014   0.0606   0.8210   1
1403.544   0.7371   0.0480   0.7730   1
1403.562   0.6810   0.0583   0.7176   1
1403.581   0.6945   0.0594   0.7102   1
1403.600   0.7495   0.0602   0.7653   1
1403.618   0.8209   0.0491   0.8406   1
1403.637   0.8573   0.0626   0.8891   1
1403.656   0.9222   0.0643   0.9142   1
1403.674   0.9298   0.0639   0.9291   1
1403.693   0.9420   0.0508   0.9385   1
1403.711   0.9561   0.0642   0.9414   1
1403.730   0.9701   0.0643   0.9368   1
1403.749   0.9144   0.0634   0.9258   1
1403.767   0.9010   0.0626   0.9129   1
1403.786   0.9039   0.0495   0.9055   1
1403.805   0.9100   0.0625   0.9086   1
1403.823   0.9684   0.0632   0.9227   1
1403.842   1.0027   0.0640   0.9439   1
1403.860   1.0264   0.0497   0.9649   1
1403.879   0.9688   0.0633   0.9805   1
1403.898   1.0267   0.0636   0.9859   1
1403.916   0.8971   0.0604   0.9656   1
1403.935   0.8852   0.0461   0.8929   1
1403.954   0.6978   0.0557   0.7720   1
1403.972   0.6012   0.0521   0.6705   1
1403.991   0.7045   0.0549   0.6817   1
1404.009   0.7378   0.0544   0.7892   1
1404.028   0.9523   0.0450   0.9080   1
1404.047   0.9399   0.0583   0.9755   1
1404.065   0.9129   0.0571   0.9953   1
1404.084   0.9958   0.0577   0.9994   1
1404.103   0.9629   0.0431   0.9999   1
1404.121   0.9963   0.0568   1.0000   1
1404.140   0.9937   0.0564   1.0000   1
1404.158   0.9816   0.0554   1.0000   1
1404.177   0.9555   0.0544   1.0000   1
1404.196   0.9117   0.0395   1.0000   1
1404.214   0.9513   0.0531   1.0000   1
1404.233   0.9831   0.0529   1.0000   1
1404.252   0.9316   0.0515   1.0000   1
1404.270   0.9935   0.0386   1.0000   1
1404.289   1.0270   0.0518   1.0000   1
1404.307   1.0196   0.0510   1.0000   1
1404.326   1.0292   0.0508   1.0000   1
1404.345   1.0269   0.0369   1.0000   1
1404.363   1.0604   0.0504   1.0000   1
1404.382   1.0252   0.0489   1.0000   1
1404.400   0.9904   0.0475   1.0000   1
1404.419   0.9933   0.0472   1.0000   1
1404.438   0.9863   0.0343   1.0000   1
1404.456   1.0398   0.0475   1.0000   1
1404.475   0.9371   0.0452   1.0000   1
1404.494   1.0577   0.0463   1.0000   1
1404.512   0.9911   0.0329   1.0000   1
1404.531   1.0467   0.0455   1.0000   1
1404.550   1.0435   0.0447   1.0000   1
1404.568   0.9872   0.0435   1.0000   1
1404.587   1.0345   0.0322   1.0000   1
1404.605   1.0759   0.0441   1.0000   1
1404.624   0.9932   0.0428   1.0000   1
